probe voltage (V), probe current (A), resistance (9.9e37 if not enabled) , timestamp , status word ,
-7.600000E+01,-1.516058E-07,+9.910000E+37,+1.271426E+04,+2.150800E+04,
-7.590000E+01,-1.268564E-07,+9.910000E+37,+1.271532E+04,+2.150800E+04,
-7.580000E+01,-1.197851E-07,+9.910000E+37,+1.271638E+04,+2.150800E+04,
-7.570000E+01,-1.167546E-07,+9.910000E+37,+1.271744E+04,+2.150800E+04,
-7.560000E+01,-1.101885E-07,+9.910000E+37,+1.271850E+04,+2.150800E+04,
-7.550000E+01,-1.051375E-07,+9.910000E+37,+1.271957E+04,+2.150800E+04,
-7.540000E+01,-1.000866E-07,+9.910000E+37,+1.272064E+04,+2.150800E+04,
-7.530000E+01,-9.352046E-08,+9.910000E+37,+1.272170E+04,+2.150800E+04,
-7.520000E+01,-8.796449E-08,+9.910000E+37,+1.272277E+04,+2.150800E+04,
-7.510000E+01,-8.493391E-08,+9.910000E+37,+1.272384E+04,+2.150800E+04,
-7.500000E+01,-7.887282E-08,+9.910000E+37,+1.272491E+04,+2.150800E+04,
-7.490000E+01,-7.786268E-08,+9.910000E+37,+1.272597E+04,+2.150800E+04,
-7.480000E+01,-7.533715E-08,+9.910000E+37,+1.272702E+04,+2.150800E+04,
-7.470000E+01,-6.220488E-08,+9.910000E+37,+1.272808E+04,+2.150800E+04,
-7.460000E+01,-5.614383E-08,+9.910000E+37,+1.272914E+04,+2.150800E+04,
-7.450000E+01,-4.856747E-08,+9.910000E+37,+1.273021E+04,+2.150800E+04,
-7.440000E+01,-4.301150E-08,+9.910000E+37,+1.273126E+04,+2.150800E+04,
-7.430000E+01,-3.745548E-08,+9.910000E+37,+1.273233E+04,+2.150800E+04,
-7.420000E+01,-3.290969E-08,+9.910000E+37,+1.273338E+04,+2.150800E+04,
-7.410000E+01,-2.280789E-08,+9.910000E+37,+1.273445E+04,+2.150800E+04,
-7.400000E+01,-1.775699E-08,+9.910000E+37,+1.273550E+04,+2.150800E+04,
-7.390000E+01,-1.169592E-08,+9.910000E+37,+1.273656E+04,+2.150800E+04,
-7.380000E+01,-6.139933E-09,+9.910000E+37,+1.273764E+04,+2.150800E+04,
-7.370000E+01,+4.262329E-10,+9.910000E+37,+1.273870E+04,+2.150800E+04,
-7.360000E+01,+6.991785E-09,+9.910000E+37,+1.273976E+04,+2.150800E+04,
-7.350000E+01,+1.406232E-08,+9.910000E+37,+1.274082E+04,+2.150800E+04,
-7.340000E+01,+2.062783E-08,+9.910000E+37,+1.274188E+04,+2.150800E+04,
-7.330000E+01,+2.820342E-08,+9.910000E+37,+1.274294E+04,+2.150800E+04,
-7.320000E+01,+3.628403E-08,+9.910000E+37,+1.274400E+04,+2.150800E+04,
-7.310000E+01,+3.779914E-08,+9.910000E+37,+1.274505E+04,+2.150800E+04,
-7.300000E+01,+4.739489E-08,+9.910000E+37,+1.274612E+04,+2.150800E+04,
-7.290000E+01,+5.396037E-08,+9.910000E+37,+1.274717E+04,+2.150800E+04,
-7.280000E+01,+5.850576E-08,+9.910000E+37,+1.274823E+04,+2.150800E+04,
-7.270000E+01,+6.204098E-08,+9.910000E+37,+1.274929E+04,+2.150800E+04,
-7.260000E+01,+6.911152E-08,+9.910000E+37,+1.275035E+04,+2.150800E+04,
-7.250000E+01,+7.820224E-08,+9.910000E+37,+1.275142E+04,+2.150800E+04,
-7.240000E+01,+8.729293E-08,+9.910000E+37,+1.275247E+04,+2.150800E+04,
-7.230000E+01,+8.426272E-08,+9.910000E+37,+1.275353E+04,+2.150800E+04,
-7.220000E+01,+9.941386E-08,+9.910000E+37,+1.275459E+04,+2.150800E+04,
-7.210000E+01,+9.739372E-08,+9.910000E+37,+1.275565E+04,+2.150800E+04,
-7.200000E+01,+1.009290E-07,+9.910000E+37,+1.275671E+04,+2.150800E+04,
-7.190000E+01,+1.090096E-07,+9.910000E+37,+1.275777E+04,+2.150800E+04,
-7.180000E+01,+1.145650E-07,+9.910000E+37,+1.275883E+04,+2.150800E+04,
-7.170000E+01,+1.175952E-07,+9.910000E+37,+1.275988E+04,+2.150800E+04,
-7.160000E+01,+1.226456E-07,+9.910000E+37,+1.276094E+04,+2.150800E+04,
-7.150000E+01,+1.276961E-07,+9.910000E+37,+1.276201E+04,+2.150800E+04,
-7.140000E+01,+1.312313E-07,+9.910000E+37,+1.276306E+04,+2.150800E+04,
-7.130000E+01,+1.372918E-07,+9.910000E+37,+1.276412E+04,+2.150800E+04,
-7.120000E+01,+1.433522E-07,+9.910000E+37,+1.276519E+04,+2.150800E+04,
-7.110000E+01,+1.484026E-07,+9.910000E+37,+1.276624E+04,+2.150800E+04,
-7.100000E+01,+1.524429E-07,+9.910000E+37,+1.276730E+04,+2.150800E+04,
-7.090000E+01,+1.569882E-07,+9.910000E+37,+1.276836E+04,+2.150800E+04,
-7.080000E+01,+1.635537E-07,+9.910000E+37,+1.276942E+04,+2.150800E+04,
-7.070000E+01,+1.696143E-07,+9.910000E+37,+1.277048E+04,+2.150800E+04,
-7.060000E+01,+1.731497E-07,+9.910000E+37,+1.277154E+04,+2.150800E+04,
-7.050000E+01,+1.792099E-07,+9.910000E+37,+1.277260E+04,+2.150800E+04,
-7.040000E+01,+1.888056E-07,+9.910000E+37,+1.277366E+04,+2.150800E+04,
-7.030000E+01,+1.877957E-07,+9.910000E+37,+1.277472E+04,+2.150800E+04,
-7.020000E+01,+1.948663E-07,+9.91000


current through plasma (-mA) <tab> voltage across plasma (-V) <tab> time (sec)
3.911483	364.418285	0.001000
3.909932	364.913580	0.101000
3.907003	365.227307	0.201000
3.903052	365.522598	0.301000
3.901413	365.649779	0.401000
3.903661	365.520113	0.501000
3.907075	365.255828	0.601000
3.908499	365.146205	0.701000
3.907345	365.241685	0.801000
3.904144	365.472075	0.901000
3.901542	365.663852	1.001000
3.903016	365.557712	1.101000
3.907400	365.212262	1.202000
3.909144	365.063996	1.301000
3.907430	365.203837	1.401000
3.904206	365.437071	1.501000
3.902872	365.558009	1.601000
3.902748	365.600972	1.701000
3.905804	365.351842	1.801000
3.908740	365.110190	1.901000
3.909221	365.048447	2.001000
3.904798	365.364714	2.101000
3.901619	365.635050	2.201000
3.903316	365.481187	2.301000
3.906622	365.259609	2.401000
3.908432	365.109301	2.501000
3.908049	365.141918	2.601000
3.905576	365.307775	2.701000
3.902647	365.548304	2.801000
3.902074	365.605124	2.901000
3.905240	365.359850	3.001000
3.908651	365.107347	3.101000
3.908718	365.084928	3.201000
3.905756	365.311616	3.301000
3.902841	365.558601	3.401000
3.902323	365.581870	3.501000
3.904351	365.447999	3.601000
3.908147	365.121080	3.701000
3.909444	365.011689	3.801000
3.905888	365.277849	3.901000
3.902638	365.561502	4.001000
3.902292	365.563650	4.101000
3.904590	365.433220	4.201000
3.907177	365.230790	4.301000
3.908277	365.104145	4.401000
3.907004	365.164788	4.501000
3.903746	365.399327	4.601000
3.901262	365.611717	4.701000
3.903361	365.470890	4.801000
3.907457	365.152584	4.901000
3.909173	365.027812	5.001000
3.907124	365.194124	5.101000
3.903928	365.440442	5.201000
3.902636	365.543948	5.301000
3.903286	365.503041	5.401000
3.906275	365.269312	5.501000
3.909235	365.018774	5.601000
3.908245	365.087367	5.701000
3.904328	365.404069	5.801000
3.901961	365.606383	5.901000
3.902678	365.583418	6.001000
3.906255	365.305234	6.101000
3.908623	365.091257	6.201000
3.908553	365.047255	6.301000
3.905649	365.298049	6.401000
3.902157	365.562539	6.501000
3.902256	365.561724	6.601000
3.905925	365.276147	6.701000
3.908403	365.127944	6.801000
3.908059	365.103790	6.901000
3.905747	365.304567	7.001000
3.903077	365.481187	7.101000
3.902239	365.534080	7.201000
3.904297	365.365523	7.301000
3.908071	365.100056	7.401000
3.909290	364.978084	7.501000
3.905696	365.288058	7.601000
3.902226	365.552661	7.701000
3.902240	365.568760	7.801000
3.904976	365.373399	7.901000
3.907472	365.168212	8.001000
3.908757	365.047740	8.101000
3.906879	365.172730	8.201000
3.903180	365.473379	8.301000
3.901687	365.630680	8.401000
3.904064	365.450780	8.501000
3.907663	365.165892	8.601000
3.908684	365.098839	8.701000
3.906848	365.186925	8.801000
3.903696	365.450807	8.901000
3.902127	365.551489	9.001000
3.903823	365.453881	9.101000
3.907261	365.192494	9.201000
3.909603	364.984137	9.301000
3.907154	365.178997	9.401000
3.903171	365.487362	9.501000
3.902243	365.570010	9.601000
3.903998	365.447149	9.701000
3.906682	365.226205	9.801000
3.908493	365.081413	9.901000
3.908333	365.087767	10.001000
3.904442	365.364681	10.101000
3.901353	365.627867	10.201000
3.902709	365.529710	10.301000
3.907205	365.182951	10.401000
3.908942	365.056146	10.501000
3.906947	365.151399	10.601000
3.904486	365.344508	10.701000
3.901918	365.567787	10.801000
3.902594	365.527906	10.901000
3.905549	365.326892	11.001000
3.908440	365.085892	11.101000
3.908205	365.085027	11.201000
3.904490	365.358213	11.301000
3.901821	365.577253	11.401000
3.902100	365.594027	11.501000
3.904904	365.327543	11.601000
3.907930	365.109069	11.701000
3.908764	365.029870	11.801000
3.905912	365.243016	11.901000
3.901899	365.607571	12.001000
3.902149	365.601561	12.101000
3.905617	365.311011	12.201000
3.908473	365.097182	12.301000
3.908133	365.071704	12.401000
3.906073	365.247980	12.501000
3.903655	365.406059	12.601000
3.902141	365.571279	12.701000
3.903948	365.453736	12.801000
3.907949	365.136762	12.901000
3.909369	365.028257	13.001000
3.906605	365.231319	13.101000
3.902736	365.529469	13.201000
3.902080	365.551341	13.301000
3.904531	365.379648	13.401000
3.907016	365.213910	13.501000
3.908737	365.053300	13.601000
3.907321	365.164622	13.701000
3.903826	365.464476	13.801000
3.901347	365.652839	13.901000
3.903202	365.519931	14.001000
3.906661	365.223682	14.101000
3.908418	365.056298	14.201000
3.907632	365.097640	14.301000
3.904859	365.326227	14.401000
3.902187	365.564687	14.501000
3.902290	365.581574	14.601000
3.905943	365.261833	14.701000
3.909052	365.043698	14.801000
3.907714	365.110736	14.901000
3.904160	365.350730	15.001000
3.902394	365.502620	15.101000
3.902926	365.499659	15.201000
3.904706	365.356815	15.301000
3.907812	365.125204	15.401000
3.908696	365.040883	15.501000
3.905474	365.303445	15.601000
3.901691	365.614457	15.701000
3.901455	365.605939	15.801000
3.905153	365.322713	15.901000
3.908131	365.094516	16.001000
3.908211	365.084726	16.101000
3.905731	365.274136	16.201000
3.902939	365.502226	16.301000
3.901615	365.597873	16.401000
3.903569	365.483854	16.501000
3.907525	365.148530	16.601000
3.908273	365.079601	16.701000
3.905778	365.252055	16.801000
3.902781	365.473289	16.901000
3.901926	365.554204	17.001000
3.903291	365.473348	17.101000
3.906656	365.222406	17.201000
3.908944	365.029234	17.301000
3.906942	365.176655	17.401000
3.902924	365.510745	17.501000
3.901416	365.617200	17.601000
3.903698	365.429440	17.701000
3.906945	365.170063	17.801000
3.908210	365.081539	17.901000
3.907557	365.117625	18.001000
3.904725	365.370757	18.101000
3.901857	365.608538	18.201000
3.901939	365.589326	18.301000
3.906249	365.260792	18.401000
3.908948	365.017265	18.501000
3.907395	365.125673	18.601000
3.903949	365.376659	18.701000
3.901770	365.550230	18.801000
3.902501	365.531784	18.901000
3.904586	365.392837	19.001000
3.907945	365.129893	19.101000
3.908115	365.108504	19.201000
3.905362	365.286125	19.301000
3.901926	365.547267	19.401000
3.901606	365.591721	19.501000
3.904079	365.395497	19.601000
3.907404	365.152490	19.701000
3.908650	365.046225	19.801000
3.906392	365.202939	19.901000
3.902167	365.562590	20.001000
3.901176	365.644821	20.101000
3.903693	365.425997	20.201000
3.907481	365.133252	20.301000
3.908138	365.066668	20.401000
3.905777	365.245685	20.501000
3.903415	365.407550	20.601000
3.901792	365.572751	20.701000
3.902650	365.562379	20.801000
3.906216	365.267978	20.901000
3.909168	365.024508	21.001000
3.907535	365.135822	21.101000
3.902857	365.490225	21.201000
3.901424	365.580307	21.301000
3.903378	365.458378	21.401000
3.906085	365.275835	21.501000
3.907912	365.104309	21.601000
3.907085	365.179382	21.701000
3.903768	365.449446	21.801000
3.901110	365.622161	21.901000
3.902076	365.556317	22.001000
3.905573	365.264500	22.101000
3.908038	365.085743	22.201000
3.907556	365.122066	22.301000
3.904818	365.329453	22.401000
3.902195	365.554479	22.501000
3.901392	365.647583	22.601000
3.904517	365.388836	22.701000
3.908627	365.064408	22.801000
3.907973	365.111801	22.901000
3.904495	365.365593	23.001000
3.902111	365.522607	23.101000
3.902374	365.530154	23.201000
3.904544	365.375967	23.301000
3.907113	365.176285	23.401000
3.908048	365.092496	23.501000
3.906067	365.257754	23.601000
3.901987	365.569397	23.701000
3.901070	365.662067	23.801000
3.904423	365.385185	23.901000
3.907977	365.113403	24.001000
3.907958	365.128191	24.101000
3.905709	365.288503	24.201000
3.902735	365.534639	24.301000
3.901230	365.661351	24.401000
3.902874	365.552022	24.501000
3.907207	365.195087	24.601000
3.908798	365.038532	24.701000
3.906498	365.200623	24.801000
3.902922	365.503244	24.901000
3.901800	365.596901	25.001000
3.903293	365.501064	25.101000
3.906128	365.309393	25.201000
3.908628	365.080335	25.301000
3.907230	365.189469	25.401000
3.903060	365.480492	25.501000
3.901114	365.638831	25.601000
3.903228	365.499607	25.701000
3.906946	365.222639	25.801000
3.907920	365.155250	25.901000
3.906775	365.225159	26.001000
3.904666	365.382236	26.101000
3.902047	365.611564	26.201000
3.901936	365.613053	26.301000
3.905236	365.336341	26.401000
3.908900	365.056037	26.501000
3.908263	365.116365	26.601000
3.904006	365.426660	26.701000
3.901709	365.620014	26.801000
3.902586	365.586233	26.901000
3.905376	365.389595	27.001000
3.908015	365.170656	27.101000
3.908208	365.121351	27.201000
3.904896	365.363227	27.301000
3.901895	365.579500	27.401000
3.901730	365.601564	27.501000
3.905385	365.352171	27.601000
3.908040	365.145728	27.701000
3.907922	365.144193	27.801000
3.905732	365.284414	27.901000
3.902561	365.551092	28.001000
3.901156	365.636901	28.101000
3.904044	365.430329	28.201000
3.908170	365.140141	28.301000
3.908823	365.061770	28.401000
3.905215	365.368362	28.501000
3.902822	365.548096	28.601000
3.902247	365.592377	28.701000
3.903887	365.474964	28.801000
3.906786	365.269986	28.901000
3.908772	365.087841	29.001000
3.907413	365.171841	29.101000
3.903083	365.516589	29.201000
3.901101	365.697842	29.301000
3.903495	365.542600	29.401000
3.907408	365.235387	29.501000
3.908332	365.161842	29.601000
3.906824	365.260278	29.701000
3.904064	365.466828	29.801000
3.901782	365.613351	29.901000
3.902723	365.569926	30.001000
3.906568	365.286430	30.101000
3.908772	365.097640	30.201000
3.907277	365.209170	30.301000
3.904277	365.440923	30.401000
3.902051	365.617421	30.501000
3.902216	365.583359	30.601000
3.905363	365.365273	30.701000
3.908727	365.069221	30.801000
3.908529	365.068076	30.901000
3.904107	365.435405	31.001000
3.901119	365.707225	31.101000
3.902777	365.590388	31.201000
3.905752	365.362538	31.301000
3.908031	365.198976	31.401000
3.907912	365.181798	31.501000
3.906226	365.296262	31.601000
3.902863	365.572158	31.701000
3.901672	365.656758	31.801000
3.904440	365.464590	31.901000
3.908320	365.159990	32.001000
3.908799	365.144468	32.101000
3.905853	365.339452	32.201000
3.902957	365.559034	32.301000
3.901934	365.625346	32.401000
3.903517	365.517338	32.501000
3.907310	365.214133	32.601000
3.908832	365.078563	32.701000
3.907099	365.210725	32.801000
3.903134	365.514968	32.901000
3.901431	365.646017	33.001000
3.903384	365.507582	33.101000
3.905976	365.334547	33.201000
3.908109	365.154046	33.301000
3.908165	365.130144	33.401000
3.904729	365.398335	33.501000
3.901306	365.653585	33.601000
3.902462	365.599638	33.701000
3.906210	365.316862	33.801000
3.908315	365.167348	33.901000
3.906991	365.249240	34.001000
3.904859	365.384828	34.101000
3.902478	365.573945	34.201000
3.901854	365.634827	34.301000
3.904601	365.421028	34.401000
3.908092	365.154268	34.501000
3.908615	365.094134	34.601000
3.904963	365.389188	34.701000
3.901619	365.667175	34.801000
3.901863	365.652629	34.901000
3.904714	365.451218	35.001000
3.907347	365.215095	35.101000
3.908221	365.119550	35.201000
3.906103	365.267023	35.301000
3.902645	365.586786	35.401000
3.901386	365.659475	35.501000
3.903835	365.484567	35.601000
3.907161	365.235093	35.701000
3.908070	365.154732	35.801000
3.906485	365.259463	35.901000
3.903402	365.479825	36.001000
3.901489	365.648154	36.101000
3.902711	365.552426	36.201000
3.906781	365.240796	36.301000
3.908974	365.070772	36.401000
3.906553	365.268594	36.501000
3.902918	365.540732	36.601000
3.901821	365.623199	36.701000
3.902829	365.549105	36.801000
3.905240	365.382188	36.901000
3.908046	365.147453	37.001000
3.907699	365.126852	37.101000
3.904378	365.443222	37.201000
3.900984	365.677244	37.301000
3.901691	365.647737	37.401000
3.905623	365.369819	37.501000
3.907972	365.194198	37.601000
3.907489	365.188592	37.701000
3.904624	365.390346	37.801000
3.901741	365.583070	37.901000
3.901647	365.629725	38.001000
3.904481	365.396350	38.101000
3.907785	365.150599	38.201000
3.907598	365.162339	38.301000
3.904766	365.360739	38.401000
3.902106	365.573482	38.501000
3.901522	365.609055	38.601000
3.903211	365.493631	38.701000
3.906726	365.199552	38.801000
3.908669	365.048086	38.901000
3.905981	365.254570	39.001000
3.901807	365.609861	39.101000
3.900634	365.716210	39.201000
3.903673	365.480103	39.301000
3.906495	365.284347	39.401000
3.907661	365.147951	39.501000
3.906656	365.198050	39.601000
3.903478	365.434590	39.701000
3.900935	365.678316	39.801000
3.902180	365.607349	39.901000
3.906044	365.319691	40.001000
3.908448	365.136978	40.101000
3.906812	365.234640	40.201000
3.903506	365.488621	40.301000
3.901592	365.611202	40.401000
3.902037	365.618162	40.501000
3.904859	365.381855	40.601000
3.907985	365.141770	40.701000
3.908044	365.137548	40.801000
3.904543	365.433886	40.901000
3.901740	365.613048	41.001000
3.901823	365.645868	41.101000
3.904165	365.431891	41.201000
3.906965	365.208298	41.301000
3.908276	365.072447	41.401000
3.906121	365.233019	41.501000
3.901456	365.628235	41.601000
3.900548	365.716281	41.701000
3.903876	365.460507	41.801000
3.906951	365.237910	41.901000
3.907483	365.184371	42.001000
3.905892	365.300504	42.101000
3.903314	365.476833	42.201000
3.901277	365.655573	42.301000
3.902123	365.597426	42.401000
3.905822	365.326951	42.501000
3.908617	365.101286	42.601000
3.906779	365.273760	42.701000
3.902670	365.568973	42.801000
3.901046	365.698704	42.901000
3.902433	365.592985	43.001000
3.905338	365.360798	43.101000
3.907637	365.173427	43.201000
3.907608	365.142246	43.301000
3.904284	365.413814	43.401000
3.901138	365.687738	43.501000
3.901930	365.639201	43.601000
3.904768	365.409889	43.701000
3.907180	365.223756	43.801000
3.907724	365.136853	43.901000
3.905617	365.311245	44.001000
3.902086	365.587299	44.101000
3.900716	365.691842	44.201000
3.903861	365.468815	44.301000
3.908200	365.142797	44.401000
3.907984	365.158398	44.501000
3.904821	365.417511	44.601000
3.902805	365.576232	44.701000
3.901668	365.645572	44.801000
3.903136	365.553503	44.901000
3.906188	365.298429	45.001000
3.908879	365.098189	45.101000
3.906884	365.233615	45.201000
3.902304	365.619125	45.301000
3.900791	365.738146	45.401000
3.903114	365.565639	45.501000
3.906269	365.349767	45.601000
3.907921	365.197235	45.701000
3.906968	365.224724	45.801000
3.903809	365.471294	45.901000
3.901220	365.655128	46.001000
3.902109	365.614012	46.101000
3.905694	365.383696	46.201000
3.908196	365.160565	46.301000
3.907279	365.202800	46.401000
3.904731	365.381500	46.501000
3.901837	365.625643	46.601000
3.901642	365.675086	46.701000
3.904050	365.464519	46.801000
3.908433	365.145938	46.901000
3.908646	365.144977	47.001000
3.904638	365.441331	47.101000
3.901446	365.695799	47.201000
3.902095	365.653788	47.301000
3.904497	365.447805	47.401000
3.906487	365.290807	47.501000
3.908142	365.139443	47.601000
3.906147	365.299921	47.701000
3.901969	365.651499	47.801000
3.901503	365.699117	47.901000
3.903918	365.519399	48.001000
3.907497	365.268586	48.101000
3.907899	365.200282	48.201000
3.905854	365.348266	48.301000
3.902440	365.576102	48.401000
3.901627	365.647726	48.501000
3.902803	365.575483	48.601000
3.906340	365.318890	48.701000
3.908525	365.146881	48.801000
3.907284	365.219625	48.901000
3.902925	365.561838	49.001000
3.901163	365.698228	49.101000
3.902151	365.630760	49.201000
3.905522	365.371449	49.301000
3.908349	365.116119	49.401000
3.907104	365.210355	49.501000
3.903662	365.518005	49.601000
3.900156	365.775880	49.701000
3.902675	365.619866	49.801000
3.905740	365.359354	49.901000
3.907683	365.219021	50.001000
3.907180	365.239243	50.101000
3.904640	365.405106	50.201000
3.901922	365.673014	50.301000
3.901215	365.754666	50.401000
3.904165	365.533243	50.501000
3.908164	365.187234	50.601000
3.907956	365.231531	50.701000
3.904734	365.441888	50.801000
3.901782	365.678550	50.901000
3.902014	365.662528	51.001000
3.903854	365.500774	51.101000
3.907056	365.254351	51.201000
3.908587	365.133600	51.301000
3.905203	365.392142	51.401000
3.902135	365.624754	51.501000
3.900813	365.745087	51.601000
3.903945	365.488965	51.701000
3.906825	365.292808	51.801000
3.907750	365.187530	51.901000
3.906242	365.261831	52.001000
3.903408	365.524027	52.101000
3.900370	365.795652	52.201000
3.902991	365.629569	52.301000
3.907057	365.280959	52.401000
3.908647	365.162082	52.501000
3.905688	365.389947	52.601000
3.902880	365.565650	52.701000
3.901971	365.658365	52.801000
3.903069	365.592564	52.901000
3.905731	365.392244	53.001000
3.907845	365.218428	53.101000
3.907477	365.250944	53.201000
3.903136	365.598979	53.301000
3.900867	365.802994	53.401000
3.902063	365.645937	53.501000
3.906039	365.369399	53.601000
3.907797	365.222417	53.701000
3.907005	365.257163	53.801000
3.904827	365.395491	53.901000
3.901642	365.702063	54.001000
3.901467	365.716210	54.101000
3.905108	365.444630	54.201000
3.908032	365.203550	54.301000
3.907733	365.223237	54.401000
3.904977	365.424995	54.501000
3.902293	365.616309	54.601000
3.901798	365.674989	54.701000
3.903859	365.525413	54.801000
3.907412	365.278137	54.901000
3.908696	365.147992	55.001000
3.905737	365.408958	55.101000
3.901711	365.707042	55.201000
3.901468	365.718043	55.301000
3.904580	365.466488	55.401000
3.906814	365.318121	55.501000
3.908078	365.215621	55.601000
3.907268	365.241609	55.701000
3.903719	365.572741	55.801000
3.901046	365.769213	55.901000
3.902532	365.699265	56.001000
3.907149	365.324654	56.101000
3.908755	365.152880	56.201000
3.906836	365.264278	56.301000
3.903771	365.529006	56.401000
3.901564	365.701100	56.501000
3.902603	365.646472	56.601000
3.905481	365.437368	56.701000
3.908495	365.179604	56.801000
3.907681	365.241833	56.901000
3.903946	365.498942	57.001000
3.901516	365.685118	57.101000
3.902593	365.611050	57.201000
3.904885	365.448255	57.301000
3.907667	365.242867	57.401000
3.908265	365.197097	57.501000
3.904953	365.456625	57.601000
3.901369	365.768724	57.701000
3.901261	365.748296	57.801000
3.904941	365.465599	57.901000
3.908180	365.212148	58.001000
3.907569	365.245017	58.101000
3.905241	365.408846	58.201000
3.903064	365.577483	58.301000
3.901788	365.719559	58.401000
3.903282	365.620237	58.501000
3.907049	365.362561	58.601000
3.908821	365.165266	58.701000
3.905875	365.395311	58.801000
3.901941	365.665694	58.901000
3.901595	365.695993	59.001000
3.903594	365.570612	59.101000
3.906171	365.392244	59.201000
3.908029	365.227395	59.301000
3.906781	365.294660	59.401000
3.902907	365.612163	59.501000
3.901038	365.752465	59.601000
3.902671	365.618680	59.701000
3.906146	365.357376	59.801000
3.907921	365.230536	59.901000
3.907207	365.251314	60.001000
3.904513	365.458180	60.101000
3.901445	365.769331	60.201000
3.901676	365.720299	60.301000
3.905226	365.448374	60.401000
3.908745	365.172612	60.501000
3.907454	365.265538	60.601000
3.903937	365.521062	60.701000
3.901827	365.679685	60.801000
3.902352	365.674389	60.901000
3.904518	365.546985	61.001000
3.907385	365.315812	61.101000
3.908276	365.223153	61.201000
3.905796	365.412481	61.301000
3.901569	365.742791	61.401000
3.901173	365.784671	61.501000
3.904550	365.530062	61.601000
3.908062	365.247923	61.701000
3.907764	365.253462	61.801000
3.905317	365.444778	61.901000
3.902872	365.624977	62.001000
3.901427	365.752121	62.101000
3.903936	365.557873	62.201000
3.907611	365.272061	62.301000
3.908528	365.161750	62.401000
3.905540	365.396468	62.501000
3.902950	365.598461	62.601000
3.901970	365.701618	62.701000
3.902773	365.657566	62.801000
3.906149	365.417767	62.901000
3.908435	365.188049	63.001000
3.906918	365.290116	63.101000
3.902208	365.673289	63.201000
3.900737	365.770843	63.301000
3.903522	365.567422	63.401000
3.906749	365.336085	63.501000
3.907706	365.264726	63.601000
3.906389	365.339785	63.701000
3.903981	365.566983	63.801000
3.901300	365.741556	63.901000
3.901304	365.777277	64.001000
3.906026	365.354360	64.101000
3.908389	365.176803	64.201000
3.907090	365.299392	64.301000
3.902651	365.606973	64.401000
3.901238	365.726309	64.501000
3.902543	365.677005	64.601000
3.905660	365.419774	64.701000
3.908049	365.244647	64.801000
3.907352	365.234133	64.901000
3.902896	365.574520	65.001000
3.900954	365.753137	65.101000
3.901876	365.676749	65.201000
3.905888	365.380733	65.301000
3.907454	365.280131	65.401000
3.906900	365.334136	65.501000
3.903700	365.543637	65.601000
3.901644	365.720448	65.701000
3.901143	365.724574	65.801000
3.904209	365.503638	65.901000
3.908814	365.179692	66.001000
